#(dyn/cm2)	(K)
Pressure	Temp
1.000E+09	5543.915
5.429E+08	4911.349
2.947E+08	4406.082
1.600E+08	4000.17
8.685E+07	3650.173
4.715E+07	3340.586
2.560E+07	3065.844
1.389E+07	2821.84
7.543E+06	2602.311
4.095E+06	2398.437
2.223E+06	2199.585
1.207E+06	1991.484
6.551E+05	1753.779
3.556E+05	1519.43
1.931E+05	1288.474
1.048E+05	1086.679
5.690E+04	916.371
3.089E+04	774.722
1.677E+04	664.609
9.103E+03	587.944
4.942E+03	542.245
2.683E+03	520.995
1.456E+03	516.845
7.906E+02	520.008
4.292E+02	523.885
2.330E+02	526.137
1.265E+02	525.574
6.866E+01	521.799
3.728E+01	516.098
2.024E+01	509.764
1.099E+01	502.751
5.964E+00	495.166
3.237E+00	487.902
1.758E+00	481.989
9.541E-01	477.416
5.179E-01	473.016
2.812E-01	468.036
1.526E-01	464.236
8.286E-02	463.518
4.498E-02	464.263
2.442E-02	464.496
1.326E-02	463.585
7.197E-03	463.031
3.907E-03	465.692
2.121E-03	472.06
1.151E-03	479.981
6.251E-04	490.363
3.393E-04	496.461
1.842E-04	513.201
1.000E-04	579.331
